SpectraSuite Data File
++++++++++++++++++++++++++++++++++++
Date: Fri Feb 17 17:45:32 PST 2017
User: admin
Dark Spectrum Present: No
Reference Spectrum Present: No
Number of Sampled Component Spectra: 1
Spectrometers: USB2G8485
Integration Time (usec): 100000 (USB2G8485)
Spectra Averaged: 1 (USB2G8485)
Boxcar Smoothing: 1 (USB2G8485)
Correct for Electrical Dark: No (USB2G8485)
Strobe/Lamp Enabled: No (USB2G8485)
Correct for Detector Non-linearity: No (USB2G8485)
Correct for Stray Light: No (USB2G8485)
Number of Pixels in Processed Spectrum: 2048
>>>>>Begin Processed Spectral Data<<<<<
0.00	0.00
1.00	81.00
2.00	122.00
3.00	122.33
4.00	124.00
5.00	125.67
6.00	127.00
7.00	128.00
8.00	128.00
9.00	128.33
10.00	128.33
11.00	129.00
12.00	129.33
13.00	129.67
14.00	130.33
15.00	131.00
16.00	130.67
17.00	130.33
18.00	130.33
19.00	131.00
20.00	130.33
21.00	130.00
22.00	130.00
23.00	129.67
24.00	129.00
25.00	128.67
26.00	130.67
27.00	132.67
28.00	133.33
29.00	132.33
30.00	131.67
31.00	132.33
32.00	133.67
33.00	134.00
34.00	133.33
35.00	133.00
36.00	133.33
37.00	135.67
38.00	136.33
39.00	136.67
40.00	135.67
41.00	135.33
42.00	134.67
43.00	133.67
44.00	132.33
45.00	132.33
46.00	132.33
47.00	133.33
48.00	134.33
49.00	135.00
50.00	135.33
51.00	134.33
52.00	133.33
53.00	132.67
54.00	134.00
55.00	135.67
56.00	136.67
57.00	135.67
58.00	134.33
59.00	132.33
60.00	132.33
61.00	132.33
62.00	133.67
63.00	133.33
64.00	133.33
65.00	134.33
66.00	135.33
67.00	136.67
68.00	136.33
69.00	136.33
70.00	137.00
71.00	137.00
72.00	136.33
73.00	135.00
74.00	135.00
75.00	135.33
76.00	135.33
77.00	134.67
78.00	134.00
79.00	135.33
80.00	136.67
81.00	137.00
82.00	135.67
83.00	135.33
84.00	136.67
85.00	137.33
86.00	136.67
87.00	136.00
88.00	136.33
89.00	137.67
90.00	138.00
91.00	138.33
92.00	138.33
93.00	138.67
94.00	138.67
95.00	137.67
96.00	138.00
97.00	138.00
98.00	137.67
99.00	136.33
100.00	135.67
101.00	137.00
102.00	136.33
103.00	135.33
104.00	134.67
105.00	137.00
106.00	139.67
107.00	141.33
108.00	141.00
109.00	140.33
110.00	140.00
111.00	140.67
112.00	143.00
113.00	149.33
114.00	156.00
115.00	163.00
116.00	162.33
117.00	159.67
118.00	154.33
119.00	151.67
120.00	151.00
121.00	150.00
122.00	150.00
123.00	151.67
124.00	156.33
125.00	163.00
126.00	171.00
127.00	185.00
128.00	214.33
129.00	322.33
130.00	745.00
131.00	1697.67
132.00	2881.33
133.00	3400.67
134.00	2799.33
135.00	1525.33
136.00	574.67
137.00	192.33
138.00	167.00
139.00	157.33
140.00	152.33
141.00	149.00
142.00	148.67
143.00	148.33
144.00	149.00
145.00	148.00
146.00	146.33
147.00	143.67
148.00	141.67
149.00	140.33
150.00	143.33
151.00	159.33
152.00	188.00
153.00	211.33
154.00	207.67
155.00	183.00
156.00	157.33
157.00	145.00
158.00	141.67
159.00	142.00
160.00	143.67
161.00	144.67
162.00	143.67
163.00	141.33
164.00	141.33
165.00	143.00
166.00	154.00
167.00	187.67
168.00	259.00
169.00	330.00
170.00	341.33
171.00	282.00
172.00	205.33
173.00	160.00
174.00	145.67
175.00	142.33
176.00	141.67
177.00	142.00
178.00	139.00
179.00	137.00
180.00	135.67
181.00	137.00
182.00	137.33
183.00	137.67
184.00	137.67
185.00	138.00
186.00	137.67
187.00	137.00
188.00	137.00
189.00	138.33
190.00	139.67
191.00	141.67
192.00	147.00
193.00	158.00
194.00	174.00
195.00	180.67
196.00	175.33
197.00	160.33
198.00	150.67
199.00	148.67
200.00	152.00
201.00	155.33
202.00	153.00
203.00	149.33
204.00	145.00
205.00	144.67
206.00	145.00
207.00	143.67
208.00	143.33
209.00	140.33
210.00	141.00
211.00	140.33
212.00	140.00
213.00	137.33
214.00	136.33
215.00	137.67
216.00	141.00
217.00	141.67
218.00	142.00
219.00	140.67
220.00	141.33
221.00	141.00
222.00	140.67
223.00	140.00
224.00	138.67
225.00	139.00
226.00	138.33
227.00	139.33
228.00	139.00
229.00	140.33
230.00	140.00
231.00	140.33
232.00	141.00
233.00	141.00
234.00	140.67
235.00	138.33
236.00	138.00
237.00	138.67
238.00	139.67
239.00	141.33
240.00	141.67
241.00	142.00
242.00	141.67
243.00	141.33
244.00	142.00
245.00	142.33
246.00	142.00
247.00	141.67
248.00	140.67
249.00	140.00
250.00	140.00
251.00	139.33
252.00	139.67
253.00	140.33
254.00	143.00
255.00	145.33
256.00	144.33
257.00	142.00
258.00	139.33
259.00	140.67
260.00	144.67
261.00	147.33
262.00	148.67
263.00	152.00
264.00	169.00
265.00	208.00
266.00	246.67
267.00	254.33
268.00	225.33
269.00	185.33
270.00	160.00
271.00	149.67
272.00	148.33
273.00	152.33
274.00	154.33
275.00	155.33
276.00	154.33
277.00	158.00
278.00	163.67
279.00	170.33
280.00	173.00
281.00	172.00
282.00	172.67
283.00	175.33
284.00	188.00
285.00	268.00
286.00	684.33
287.00	1692.33
288.00	2919.00
289.00	3660.00
290.00	3186.67
291.00	2035.33
292.00	892.67
293.00	348.33
294.00	189.67
295.00	166.67
296.00	158.00
297.00	154.00
298.00	153.00
299.00	153.00
300.00	151.67
301.00	151.33
302.00	148.67
303.00	148.00
304.00	146.67
305.00	145.67
306.00	144.00
307.00	143.33
308.00	145.00
309.00	145.33
310.00	144.33
311.00	142.67
312.00	142.33
313.00	143.00
314.00	145.00
315.00	146.67
316.00	145.67
317.00	142.67
318.00	140.33
319.00	139.33
320.00	138.67
321.00	139.00
322.00	140.00
323.00	141.67
324.00	140.67
325.00	139.67
326.00	138.67
327.00	139.00
328.00	141.67
329.00	144.00
330.00	146.00
331.00	144.67
332.00	144.67
333.00	144.67
334.00	145.33
335.00	144.67
336.00	144.33
337.00	144.00
338.00	145.67
339.00	148.00
340.00	149.33
341.00	149.67
342.00	149.00
343.00	148.00
344.00	146.00
345.00	145.00
346.00	145.00
347.00	147.33
348.00	149.67
349.00	152.67
350.00	157.33
351.00	210.00
352.00	380.67
353.00	717.67
354.00	1035.00
355.00	1120.00
356.00	888.67
357.00	546.00
358.00	296.00
359.00	186.67
360.00	158.33
361.00	149.33
362.00	146.33
363.00	145.00
364.00	146.33
365.00	146.00
366.00	146.00
367.00	145.33
368.00	144.67
369.00	143.67
370.00	143.33
371.00	144.67
372.00	145.33
373.00	144.00
374.00	141.67
375.00	140.00
376.00	141.00
377.00	142.33
378.00	142.67
379.00	141.67
380.00	141.00
381.00	142.00
382.00	143.67
383.00	145.33
384.00	145.67
385.00	144.67
386.00	144.00
387.00	143.67
388.00	143.67
389.00	143.33
390.00	145.33
391.00	147.00
392.00	148.67
393.00	147.00
394.00	146.33
395.00	146.33
396.00	148.33
397.00	149.00
398.00	148.67
399.00	147.00
400.00	147.00
401.00	148.00
402.00	149.00
403.00	149.00
404.00	149.33
405.00	149.67
406.00	149.67
407.00	158.00
408.00	255.33
409.00	577.33
410.00	1121.67
411.00	1613.33
412.00	1713.33
413.00	1372.67
414.00	863.67
415.00	462.00
416.00	257.33
417.00	177.00
418.00	156.67
419.00	148.67
420.00	150.00
421.00	152.67
422.00	155.33
423.00	157.33
424.00	159.00
425.00	160.67
426.00	159.67
427.00	157.33
428.00	155.33
429.00	158.00
430.00	160.00
431.00	163.33
432.00	172.00
433.00	245.00
434.00	688.33
435.00	1829.00
436.00	3067.67
437.00	3934.00
438.00	4062.33
439.00	3275.00
440.00	2158.67
441.00	931.67
442.00	427.00
443.00	267.33
444.00	292.67
445.00	367.67
446.00	417.33
447.00	388.33
448.00	313.67
449.00	234.67
450.00	185.33
451.00	162.33
452.00	150.33
453.00	145.67
454.00	146.00
455.00	147.67
456.00	147.00
457.00	144.33
458.00	144.00
459.00	145.00
460.00	145.00
461.00	143.67
462.00	143.00
463.00	143.00
464.00	141.33
465.00	139.00
466.00	137.33
467.00	138.67
468.00	140.33
469.00	140.00
470.00	140.00
471.00	140.33
472.00	140.33
473.00	139.33
474.00	139.33
475.00	140.33
476.00	141.00
477.00	140.67
478.00	141.00
479.00	140.00
480.00	139.67
481.00	138.67
482.00	139.33
483.00	139.00
484.00	138.67
485.00	139.00
486.00	138.00
487.00	138.67
488.00	138.00
489.00	140.00
490.00	139.67
491.00	139.67
492.00	139.33
493.00	139.67
494.00	139.00
495.00	140.00
496.00	141.33
497.00	143.67
498.00	144.00
499.00	145.00
500.00	146.67
501.00	149.33
502.00	150.67
503.00	150.67
504.00	150.00
505.00	149.67
506.00	149.67
507.00	149.00
508.00	147.67
509.00	145.33
510.00	143.33
511.00	142.33
512.00	143.00
513.00	144.33
514.00	145.33
515.00	145.00
516.00	142.67
517.00	141.33
518.00	140.33
519.00	140.33
520.00	140.33
521.00	142.33
522.00	144.00
523.00	146.00
524.00	146.00
525.00	145.00
526.00	142.67
527.00	140.00
528.00	139.33
529.00	139.33
530.00	140.00
531.00	140.33
532.00	140.67
533.00	141.00
534.00	141.67
535.00	141.67
536.00	140.67
537.00	138.33
538.00	137.00
539.00	137.67
540.00	139.00
541.00	139.00
542.00	138.33
543.00	138.33
544.00	140.00
545.00	141.33
546.00	141.67
547.00	143.67
548.00	145.33
549.00	145.67
550.00	142.00
551.00	139.67
552.00	140.67
553.00	142.00
554.00	142.67
555.00	140.67
556.00	140.00
557.00	140.33
558.00	141.67
559.00	142.00
560.00	140.67
561.00	138.00
562.00	137.67
563.00	137.33
564.00	139.00
565.00	139.00
566.00	139.00
567.00	141.67
568.00	142.33
569.00	143.67
570.00	141.67
571.00	141.33
572.00	143.00
573.00	145.33
574.00	146.33
575.00	146.00
576.00	145.00
577.00	146.67
578.00	147.00
579.00	147.00
580.00	146.33
581.00	147.67
582.00	147.00
583.00	145.33
584.00	141.67
585.00	143.00
586.00	144.33
587.00	147.33
588.00	148.67
589.00	149.67
590.00	151.00
591.00	152.33
592.00	154.00
593.00	154.00
594.00	155.00
595.00	156.00
596.00	156.33
597.00	156.67
598.00	155.67
599.00	157.33
600.00	156.00
601.00	155.67
602.00	154.33
603.00	153.33
604.00	153.00
605.00	153.00
606.00	153.33
607.00	153.00
608.00	152.67
609.00	153.00
610.00	151.33
611.00	149.33
612.00	147.67
613.00	147.67
614.00	146.00
615.00	144.33
616.00	144.00
617.00	145.67
618.00	148.00
619.00	149.33
620.00	150.67
621.00	150.67
622.00	151.00
623.00	150.67
624.00	151.67
625.00	155.00
626.00	160.33
627.00	166.00
628.00	169.33
629.00	173.67
630.00	177.67
631.00	179.00
632.00	178.33
633.00	177.67
634.00	181.67
635.00	182.33
636.00	180.67
637.00	178.33
638.00	178.00
639.00	177.33
640.00	176.00
641.00	177.67
642.00	183.00
643.00	193.00
644.00	201.67
645.00	204.67
646.00	201.00
647.00	194.33
648.00	192.33
649.00	194.00
650.00	197.33
651.00	198.33
652.00	194.00
653.00	190.33
654.00	189.67
655.00	190.33
656.00	191.67
657.00	191.33
658.00	195.00
659.00	195.33
660.00	194.33
661.00	198.00
662.00	224.33
663.00	276.67
664.00	337.33
665.00	369.67
666.00	361.33
667.00	332.67
668.00	315.33
669.00	325.00
670.00	360.00
671.00	443.67
672.00	850.67
673.00	2078.67
674.00	3254.00
675.00	4095.00
676.00	4095.00
677.00	4095.00
678.00	4095.00
679.00	4095.00
680.00	4095.00
681.00	4095.00
682.00	3442.33
683.00	2317.67
684.00	1104.00
685.00	509.00
686.00	364.67
687.00	296.00
688.00	256.67
689.00	230.00
690.00	213.00
691.00	198.33
692.00	191.33
693.00	186.33
694.00	183.00
695.00	178.67
696.00	174.33
697.00	173.00
698.00	172.33
699.00	171.33
700.00	166.00
701.00	164.67
702.00	165.00
703.00	166.00
704.00	164.67
705.00	162.67
706.00	163.67
707.00	163.67
708.00	163.33
709.00	159.67
710.00	156.67
711.00	154.67
712.00	154.00
713.00	153.33
714.00	151.67
715.00	151.33
716.00	150.67
717.00	151.33
718.00	151.67
719.00	152.00
720.00	151.00
721.00	149.33
722.00	146.33
723.00	145.33
724.00	145.33
725.00	145.67
726.00	145.33
727.00	145.33
728.00	145.00
729.00	145.67
730.00	146.00
731.00	147.33
732.00	147.00
733.00	144.67
734.00	143.33
735.00	144.67
736.00	145.00
737.00	145.33
738.00	143.00
739.00	143.33
740.00	141.67
741.00	141.33
742.00	142.00
743.00	143.67
744.00	143.33
745.00	141.67
746.00	140.67
747.00	140.00
748.00	140.67
749.00	143.33
750.00	145.33
751.00	147.00
752.00	145.67
753.00	147.33
754.00	149.33
755.00	154.67
756.00	158.67
757.00	161.00
758.00	158.67
759.00	154.67
760.00	151.00
761.00	148.00
762.00	145.67
763.00	144.00
764.00	144.00
765.00	145.33
766.00	145.33
767.00	145.00
768.00	144.00
769.00	143.67
770.00	143.67
771.00	144.33
772.00	145.00
773.00	143.67
774.00	143.00
775.00	142.33
776.00	142.00
777.00	140.33
778.00	140.33
779.00	142.33
780.00	145.33
781.00	144.67
782.00	144.00
783.00	141.67
784.00	142.67
785.00	144.00
786.00	144.67
787.00	144.67
788.00	145.33
789.00	147.00
790.00	146.00
791.00	144.00
792.00	142.67
793.00	142.33
794.00	142.33
795.00	142.00
796.00	142.33
797.00	142.33
798.00	143.33
799.00	143.67
800.00	144.00
801.00	143.33
802.00	144.33
803.00	143.67
804.00	143.33
805.00	143.67
806.00	145.33
807.00	146.33
808.00	146.00
809.00	146.67
810.00	147.67
811.00	148.00
812.00	146.00
813.00	145.33
814.00	146.00
815.00	147.00
816.00	147.67
817.00	148.00
818.00	147.67
819.00	146.33
820.00	144.67
821.00	144.67
822.00	145.00
823.00	145.33
824.00	147.33
825.00	149.00
826.00	150.67
827.00	150.00
828.00	149.00
829.00	147.33
830.00	146.00
831.00	144.67
832.00	143.67
833.00	142.00
834.00	142.67
835.00	143.00
836.00	144.00
837.00	142.67
838.00	141.67
839.00	143.00
840.00	145.67
841.00	147.67
842.00	149.00
843.00	149.00
844.00	146.67
845.00	142.33
846.00	140.67
847.00	142.67
848.00	144.00
849.00	142.67
850.00	141.00
851.00	141.33
852.00	142.33
853.00	142.00
854.00	141.00
855.00	139.33
856.00	138.00
857.00	137.33
858.00	138.67
859.00	142.33
860.00	144.33
861.00	144.67
862.00	144.33
863.00	145.00
864.00	146.33
865.00	146.67
866.00	148.00
867.00	148.00
868.00	151.00
869.00	151.33
870.00	151.00
871.00	148.33
872.00	146.67
873.00	147.67
874.00	147.00
875.00	147.00
876.00	146.33
877.00	148.67
878.00	152.33
879.00	155.00
880.00	156.67
881.00	155.33
882.00	155.67
883.00	153.67
884.00	153.00
885.00	150.00
886.00	147.67
887.00	145.67
888.00	147.00
889.00	148.00
890.00	148.00
891.00	146.33
892.00	146.33
893.00	150.33
894.00	157.67
895.00	169.67
896.00	180.33
897.00	185.67
898.00	182.33
899.00	176.67
900.00	177.67
901.00	191.33
902.00	293.00
903.00	1117.00
904.00	2410.33
905.00	3616.33
906.00	4095.00
907.00	4095.00
908.00	4095.00
909.00	4095.00
910.00	3976.33
911.00	3252.67
912.00	2242.67
913.00	1175.00
914.00	637.00
915.00	356.67
916.00	242.67
917.00	196.00
918.00	175.00
919.00	161.33
920.00	156.33
921.00	153.67
922.00	151.67
923.00	149.00
924.00	146.67
925.00	145.33
926.00	143.67
927.00	142.67
928.00	143.67
929.00	143.33
930.00	143.00
931.00	141.67
932.00	142.33
933.00	142.67
934.00	142.33
935.00	142.67
936.00	142.67
937.00	142.33
938.00	141.67
939.00	140.00
940.00	139.33
941.00	138.33
942.00	139.00
943.00	140.00
944.00	140.00
945.00	139.33
946.00	137.67
947.00	136.00
948.00	136.33
949.00	138.33
950.00	140.00
951.00	140.33
952.00	138.00
953.00	136.33
954.00	136.00
955.00	138.33
956.00	140.33
957.00	141.33
958.00	141.00
959.00	141.00
960.00	139.67
961.00	138.33
962.00	138.33
963.00	138.00
964.00	138.00
965.00	137.00
966.00	137.67
967.00	140.67
968.00	142.00
969.00	143.67
970.00	141.00
971.00	141.00
972.00	140.00
973.00	140.00
974.00	138.33
975.00	137.33
976.00	137.33
977.00	140.00
978.00	139.67
979.00	140.00
980.00	141.33
981.00	145.33
982.00	149.00
983.00	148.33
984.00	148.00
985.00	145.67
986.00	144.67
987.00	145.00
988.00	146.33
989.00	147.33
990.00	146.67
991.00	147.33
992.00	149.33
993.00	151.33
994.00	152.33
995.00	152.00
996.00	150.67
997.00	150.00
998.00	148.67
999.00	150.67
1000.00	150.67
1001.00	151.67
1002.00	151.00
1003.00	151.33
1004.00	151.67
1005.00	152.33
1006.00	152.33
1007.00	154.67
1008.00	165.00
1009.00	183.33
1010.00	204.00
1011.00	215.67
1012.00	215.67
1013.00	212.33
1014.00	215.67
1015.00	260.33
1016.00	778.00
1017.00	2066.00
1018.00	3317.67
1019.00	4095.00
1020.00	4095.00
1021.00	4095.00
1022.00	4095.00
1023.00	4095.00
1024.00	4095.00
1025.00	3930.67
1026.00	3123.33
1027.00	2043.67
1028.00	996.33
1029.00	539.00
1030.00	329.00
1031.00	242.67
1032.00	202.67
1033.00	184.00
1034.00	172.33
1035.00	164.33
1036.00	158.00
1037.00	152.00
1038.00	148.00
1039.00	144.67
1040.00	142.67
1041.00	141.67
1042.00	140.67
1043.00	140.00
1044.00	138.67
1045.00	139.33
1046.00	138.33
1047.00	139.00
1048.00	138.33
1049.00	139.00
1050.00	139.33
1051.00	140.67
1052.00	141.00
1053.00	142.00
1054.00	141.33
1055.00	140.33
1056.00	138.33
1057.00	138.00
1058.00	140.00
1059.00	141.67
1060.00	141.67
1061.00	140.33
1062.00	138.33
1063.00	137.33
1064.00	138.00
1065.00	140.33
1066.00	141.67
1067.00	141.00
1068.00	140.67
1069.00	140.67
1070.00	140.33
1071.00	139.00
1072.00	138.67
1073.00	139.67
1074.00	141.67
1075.00	143.33
1076.00	143.67
1077.00	142.33
1078.00	142.67
1079.00	146.00
1080.00	186.33
1081.00	405.00
1082.00	906.33
1083.00	1528.67
1084.00	1924.67
1085.00	1860.33
1086.00	1538.00
1087.00	1175.33
1088.00	906.67
1089.00	685.33
1090.00	505.67
1091.00	368.67
1092.00	266.33
1093.00	200.00
1094.00	167.67
1095.00	151.33
1096.00	143.67
1097.00	139.67
1098.00	137.67
1099.00	137.67
1100.00	137.33
1101.00	137.33
1102.00	136.67
1103.00	137.33
1104.00	137.33
1105.00	136.67
1106.00	135.33
1107.00	135.00
1108.00	135.00
1109.00	135.33
1110.00	135.00
1111.00	133.33
1112.00	133.33
1113.00	134.00
1114.00	135.00
1115.00	135.00
1116.00	135.33
1117.00	136.00
1118.00	136.33
1119.00	135.33
1120.00	135.00
1121.00	134.00
1122.00	133.33
1123.00	132.33
1124.00	132.00
1125.00	132.00
1126.00	133.00
1127.00	133.33
1128.00	133.67
1129.00	133.00
1130.00	133.33
1131.00	134.00
1132.00	133.67
1133.00	133.67
1134.00	132.67
1135.00	132.33
1136.00	131.67
1137.00	132.00
1138.00	132.33
1139.00	132.67
1140.00	132.33
1141.00	132.67
1142.00	132.67
1143.00	134.33
1144.00	135.00
1145.00	135.33
1146.00	133.67
1147.00	133.00
1148.00	133.67
1149.00	134.33
1150.00	135.33
1151.00	135.67
1152.00	135.33
1153.00	134.33
1154.00	132.33
1155.00	132.33
1156.00	131.33
1157.00	133.00
1158.00	134.00
1159.00	136.67
1160.00	135.33
1161.00	134.33
1162.00	133.67
1163.00	134.67
1164.00	134.00
1165.00	132.67
1166.00	132.00
1167.00	132.67
1168.00	132.67
1169.00	132.67
1170.00	133.33
1171.00	134.00
1172.00	133.67
1173.00	132.00
1174.00	131.00
1175.00	130.67
1176.00	131.67
1177.00	132.00
1178.00	131.67
1179.00	131.33
1180.00	131.33
1181.00	131.67
1182.00	131.67
1183.00	132.33
1184.00	133.00
1185.00	133.33
1186.00	132.33
1187.00	131.67
1188.00	132.67
1189.00	134.00
1190.00	135.33
1191.00	134.00
1192.00	132.00
1193.00	132.00
1194.00	133.67
1195.00	136.00
1196.00	136.33
1197.00	136.00
1198.00	135.00
1199.00	134.33
1200.00	133.33
1201.00	134.00
1202.00	134.00
1203.00	134.33
1204.00	134.00
1205.00	134.33
1206.00	135.00
1207.00	134.67
1208.00	133.67
1209.00	132.33
1210.00	132.67
1211.00	133.00
1212.00	133.67
1213.00	133.00
1214.00	131.67
1215.00	131.67
1216.00	134.00
1217.00	136.67
1218.00	137.00
1219.00	135.33
1220.00	134.33
1221.00	134.00
1222.00	134.00
1223.00	134.00
1224.00	134.00
1225.00	133.67
1226.00	134.33
1227.00	136.00
1228.00	138.33
1229.00	148.00
1230.00	188.00
1231.00	255.67
1232.00	320.00
1233.00	338.00
1234.00	315.33
1235.00	276.67
1236.00	244.00
1237.00	218.33
1238.00	197.33
1239.00	180.00
1240.00	165.33
1241.00	154.00
1242.00	145.67
1243.00	138.67
1244.00	135.00
1245.00	133.67
1246.00	133.67
1247.00	132.67
1248.00	132.67
1249.00	132.67
1250.00	133.00
1251.00	132.67
1252.00	132.67
1253.00	132.67
1254.00	133.00
1255.00	133.00
1256.00	133.00
1257.00	132.67
1258.00	132.33
1259.00	131.67
1260.00	130.67
1261.00	130.33
1262.00	131.00
1263.00	132.33
1264.00	133.00
1265.00	133.00
1266.00	133.00
1267.00	132.67
1268.00	132.67
1269.00	132.33
1270.00	132.00
1271.00	131.33
1272.00	130.33
1273.00	130.33
1274.00	129.67
1275.00	130.67
1276.00	132.33
1277.00	135.00
1278.00	135.33
1279.00	135.00
1280.00	134.67
1281.00	135.00
1282.00	134.00
1283.00	133.00
1284.00	132.67
1285.00	132.67
1286.00	131.67
1287.00	130.67
1288.00	131.00
1289.00	131.33
1290.00	131.33
1291.00	130.33
1292.00	130.67
1293.00	131.33
1294.00	132.33
1295.00	132.67
1296.00	131.67
1297.00	131.67
1298.00	131.67
1299.00	132.00
1300.00	132.33
1301.00	131.67
1302.00	131.00
1303.00	129.33
1304.00	128.67
1305.00	129.00
1306.00	128.33
1307.00	129.33
1308.00	130.00
1309.00	131.33
1310.00	132.00
1311.00	133.33
1312.00	133.67
1313.00	135.00
1314.00	134.00
1315.00	134.67
1316.00	133.33
1317.00	132.00
1318.00	131.67
1319.00	132.67
1320.00	134.67
1321.00	134.67
1322.00	132.67
1323.00	132.00
1324.00	131.67
1325.00	132.33
1326.00	133.67
1327.00	134.67
1328.00	134.33
1329.00	132.00
1330.00	130.33
1331.00	130.33
1332.00	131.00
1333.00	132.00
1334.00	132.00
1335.00	132.67
1336.00	133.33
1337.00	135.33
1338.00	135.00
1339.00	134.33
1340.00	133.00
1341.00	133.00
1342.00	132.33
1343.00	131.33
1344.00	132.33
1345.00	133.00
1346.00	133.67
1347.00	132.00
1348.00	132.00
1349.00	132.67
1350.00	133.67
1351.00	134.00
1352.00	133.33
1353.00	131.33
1354.00	130.33
1355.00	129.33
1356.00	130.00
1357.00	131.00
1358.00	133.00
1359.00	133.67
1360.00	133.33
1361.00	132.67
1362.00	133.00
1363.00	132.00
