SpectraSuite Data File
++++++++++++++++++++++++++++++++++++
Date: Fri Feb 17 17:51:09 PST 2017
User: admin
Dark Spectrum Present: No
Reference Spectrum Present: No
Number of Sampled Component Spectra: 1
Spectrometers: USB2G8485
Integration Time (usec): 100000 (USB2G8485)
Spectra Averaged: 1 (USB2G8485)
Boxcar Smoothing: 1 (USB2G8485)
Correct for Electrical Dark: No (USB2G8485)
Strobe/Lamp Enabled: No (USB2G8485)
Correct for Detector Non-linearity: No (USB2G8485)
Correct for Stray Light: No (USB2G8485)
Number of Pixels in Processed Spectrum: 2048
>>>>>Begin Processed Spectral Data<<<<<
0.00	0.00
1.00	80.33
2.00	121.00
3.00	122.00
4.00	124.00
5.00	125.67
6.00	127.33
7.00	127.67
8.00	128.33
9.00	128.67
10.00	128.67
11.00	129.00
12.00	129.00
13.00	129.33
14.00	128.67
15.00	128.33
16.00	128.33
17.00	128.00
18.00	128.33
19.00	128.67
20.00	129.67
21.00	129.33
22.00	128.33
23.00	127.33
24.00	128.33
25.00	131.33
26.00	136.00
27.00	137.67
28.00	138.00
29.00	136.67
30.00	135.67
31.00	134.67
32.00	134.67
33.00	135.00
34.00	135.00
35.00	134.67
36.00	135.00
37.00	135.33
38.00	135.00
39.00	136.67
40.00	137.67
41.00	139.00
42.00	138.00
43.00	137.67
44.00	138.67
45.00	140.00
46.00	141.00
47.00	141.33
48.00	141.33
49.00	141.00
50.00	140.00
51.00	140.67
52.00	143.00
53.00	144.00
54.00	144.00
55.00	143.00
56.00	143.67
57.00	144.00
58.00	144.00
59.00	143.67
60.00	143.67
61.00	145.67
62.00	147.00
63.00	148.00
64.00	146.33
65.00	146.67
66.00	147.67
67.00	150.33
68.00	152.67
69.00	152.67
70.00	151.67
71.00	151.00
72.00	153.33
73.00	156.00
74.00	157.00
75.00	158.33
76.00	158.33
77.00	159.67
78.00	159.67
79.00	160.33
80.00	160.00
81.00	161.33
82.00	162.00
83.00	162.00
84.00	161.33
85.00	161.00
86.00	161.67
87.00	161.67
88.00	164.33
89.00	165.67
90.00	166.67
91.00	167.00
92.00	168.33
93.00	171.67
94.00	174.33
95.00	174.67
96.00	172.67
97.00	170.33
98.00	170.33
99.00	169.00
100.00	169.67
101.00	172.67
102.00	175.67
103.00	179.00
104.00	178.00
105.00	181.33
106.00	182.33
107.00	188.00
108.00	193.33
109.00	199.67
110.00	200.00
111.00	198.00
112.00	193.67
113.00	194.00
114.00	190.67
115.00	189.67
116.00	188.33
117.00	194.00
118.00	197.33
119.00	201.33
120.00	201.00
121.00	204.00
122.00	209.67
123.00	215.33
124.00	221.67
125.00	225.33
126.00	235.00
127.00	240.33
128.00	243.00
129.00	238.33
130.00	231.00
131.00	227.00
132.00	227.00
133.00	230.33
134.00	228.33
135.00	223.67
136.00	221.33
137.00	223.00
138.00	225.67
139.00	227.67
140.00	228.00
141.00	228.67
142.00	227.67
143.00	230.00
144.00	231.67
145.00	235.00
146.00	237.67
147.00	240.00
148.00	238.33
149.00	236.00
150.00	234.00
151.00	241.33
152.00	247.67
153.00	255.67
154.00	256.00
155.00	259.00
156.00	259.67
157.00	267.00
158.00	273.33
159.00	284.33
160.00	291.67
161.00	291.67
162.00	286.00
163.00	279.00
164.00	274.33
165.00	269.67
166.00	263.33
167.00	262.67
168.00	264.00
169.00	269.33
170.00	272.67
171.00	273.33
172.00	275.33
173.00	274.67
174.00	280.00
175.00	286.67
176.00	293.67
177.00	308.00
178.00	329.33
179.00	367.33
180.00	393.33
181.00	397.00
182.00	375.00
183.00	349.00
184.00	328.33
185.00	316.67
186.00	306.67
187.00	304.67
188.00	305.67
189.00	311.67
190.00	313.00
191.00	308.00
192.00	298.00
193.00	290.33
194.00	283.00
195.00	281.00
196.00	280.67
197.00	287.33
198.00	290.00
199.00	289.00
200.00	289.00
201.00	290.00
202.00	295.33
203.00	305.67
204.00	319.67
205.00	332.33
206.00	339.33
207.00	359.33
208.00	395.00
209.00	432.00
210.00	436.33
211.00	404.67
212.00	360.00
213.00	332.00
214.00	335.67
215.00	359.33
216.00	396.33
217.00	428.67
218.00	441.33
219.00	424.33
220.00	390.00
221.00	359.67
222.00	342.33
223.00	325.33
224.00	315.33
225.00	303.67
226.00	303.67
227.00	296.00
228.00	300.00
229.00	300.00
230.00	305.33
231.00	306.67
232.00	303.00
233.00	298.67
234.00	296.33
235.00	297.67
236.00	304.00
237.00	300.67
238.00	303.00
239.00	305.00
240.00	313.00
241.00	318.67
242.00	323.33
243.00	326.00
244.00	328.33
245.00	327.00
246.00	323.33
247.00	319.00
248.00	312.00
249.00	313.33
250.00	327.00
251.00	361.00
252.00	425.00
253.00	482.00
254.00	488.00
255.00	432.67
256.00	362.33
257.00	321.67
258.00	309.33
259.00	308.00
260.00	311.00
261.00	311.33
262.00	313.00
263.00	320.00
264.00	332.00
265.00	334.67
266.00	340.00
267.00	338.67
268.00	344.67
269.00	344.67
270.00	352.33
271.00	374.67
272.00	405.00
273.00	440.33
274.00	450.33
275.00	439.67
276.00	407.67
277.00	380.67
278.00	361.33
279.00	357.33
280.00	368.00
281.00	394.33
282.00	424.00
283.00	450.67
284.00	458.33
285.00	456.33
286.00	438.33
287.00	420.33
288.00	395.33
289.00	380.33
290.00	371.67
291.00	391.33
292.00	417.00
293.00	445.33
294.00	461.33
295.00	467.00
296.00	460.67
297.00	438.33
298.00	414.67
299.00	400.67
300.00	397.00
301.00	402.67
302.00	407.67
303.00	414.67
304.00	421.33
305.00	430.00
306.00	433.33
307.00	419.67
308.00	410.00
309.00	406.33
310.00	427.33
311.00	438.67
312.00	460.00
313.00	475.67
314.00	514.67
315.00	551.67
316.00	607.33
317.00	652.33
318.00	660.00
319.00	598.67
320.00	490.00
321.00	399.33
322.00	351.67
323.00	342.67
324.00	339.33
325.00	340.67
326.00	348.67
327.00	367.67
328.00	399.67
329.00	455.00
330.00	577.33
331.00	755.00
332.00	898.33
333.00	872.67
334.00	703.00
335.00	510.67
336.00	411.67
337.00	393.00
338.00	409.00
339.00	433.33
340.00	454.00
341.00	465.00
342.00	468.00
343.00	464.00
344.00	467.33
345.00	487.00
346.00	504.67
347.00	499.67
348.00	449.00
349.00	391.33
350.00	346.33
351.00	336.00
352.00	346.00
353.00	372.00
354.00	410.67
355.00	457.00
356.00	492.00
357.00	482.67
358.00	439.33
359.00	382.00
360.00	355.33
361.00	349.67
362.00	358.33
363.00	353.67
364.00	344.67
365.00	335.67
366.00	339.67
367.00	349.67
368.00	359.33
369.00	363.67
370.00	365.33
371.00	379.00
372.00	393.00
373.00	412.67
374.00	417.67
375.00	428.67
376.00	435.67
377.00	437.00
378.00	421.67
379.00	397.67
380.00	380.67
381.00	375.33
382.00	377.00
383.00	375.00
384.00	374.33
385.00	380.33
386.00	392.00
387.00	408.00
388.00	420.67
389.00	443.33
390.00	472.00
391.00	541.00
392.00	832.33
393.00	1454.33
394.00	2140.00
395.00	2361.67
396.00	1946.00
397.00	1313.00
398.00	845.00
399.00	629.00
400.00	505.33
401.00	433.00
402.00	400.33
403.00	385.67
404.00	382.67
405.00	385.67
406.00	388.00
407.00	390.67
408.00	387.33
409.00	387.67
410.00	414.33
411.00	500.00
412.00	662.00
413.00	848.67
414.00	952.33
415.00	903.33
416.00	735.33
417.00	556.00
418.00	441.00
419.00	403.33
420.00	407.67
421.00	413.33
422.00	423.33
423.00	440.67
424.00	479.00
425.00	502.00
426.00	499.33
427.00	457.67
428.00	403.00
429.00	357.67
430.00	343.33
431.00	353.00
432.00	378.67
433.00	410.00
434.00	468.00
435.00	546.67
436.00	604.67
437.00	591.67
438.00	512.33
439.00	432.00
440.00	381.33
441.00	363.67
442.00	357.33
443.00	360.33
444.00	361.33
445.00	360.00
446.00	368.00
447.00	378.67
448.00	392.67
449.00	402.00
450.00	414.67
451.00	421.67
452.00	425.67
453.00	432.00
454.00	447.67
455.00	451.33
456.00	426.00
457.00	381.33
458.00	339.00
459.00	320.33
460.00	319.33
461.00	333.33
462.00	351.33
463.00	358.67
464.00	354.33
465.00	334.67
466.00	314.00
467.00	294.33
468.00	287.00
469.00	284.00
470.00	288.33
471.00	297.33
472.00	306.67
473.00	307.00
474.00	307.67
475.00	306.67
476.00	310.33
477.00	309.00
478.00	313.67
479.00	321.67
480.00	329.67
481.00	331.33
482.00	323.00
483.00	314.00
484.00	310.00
485.00	320.67
486.00	335.67
487.00	346.00
488.00	336.00
489.00	313.00
490.00	295.00
491.00	290.67
492.00	302.33
493.00	315.67
494.00	332.33
495.00	334.00
496.00	321.67
497.00	297.67
498.00	283.67
499.00	280.33
500.00	280.67
501.00	284.00
502.00	295.33
503.00	325.67
504.00	363.67
505.00	395.00
506.00	405.33
507.00	391.67
508.00	366.33
509.00	339.00
510.00	323.00
511.00	315.00
512.00	313.67
513.00	309.00
514.00	315.33
515.00	326.33
516.00	338.00
517.00	332.67
518.00	319.00
519.00	311.33
520.00	308.67
521.00	302.33
522.00	295.33
523.00	296.00
524.00	306.33
525.00	314.67
526.00	310.33
527.00	296.33
528.00	279.67
529.00	275.67
530.00	286.67
531.00	302.33
532.00	309.33
533.00	309.33
534.00	310.33
535.00	312.67
536.00	306.00
537.00	305.67
538.00	317.67
539.00	348.00
540.00	366.00
541.00	368.67
542.00	360.00
543.00	344.00
544.00	332.67
545.00	319.67
546.00	323.33
547.00	344.67
548.00	381.00
549.00	412.00
550.00	417.00
551.00	395.33
552.00	362.33
553.00	327.67
554.00	300.67
555.00	276.33
556.00	264.00
557.00	261.67
558.00	271.67
559.00	285.00
560.00	288.67
561.00	285.33
562.00	276.67
563.00	276.00
564.00	280.67
565.00	279.67
566.00	276.33
567.00	269.00
568.00	271.00
569.00	283.67
570.00	302.00
571.00	313.67
572.00	313.33
573.00	301.33
574.00	286.67
575.00	274.67
576.00	268.67
577.00	271.67
578.00	272.67
579.00	287.33
580.00	310.00
581.00	338.33
582.00	347.33
583.00	338.33
584.00	321.33
585.00	309.67
586.00	297.33
587.00	288.67
588.00	277.33
589.00	270.00
590.00	260.67
591.00	254.67
592.00	251.67
593.00	246.67
594.00	242.33
595.00	238.67
596.00	248.00
597.00	271.33
598.00	297.67
599.00	309.67
600.00	307.33
601.00	301.33
602.00	302.00
603.00	298.00
604.00	293.67
605.00	293.00
606.00	296.00
607.00	304.33
608.00	305.67
609.00	300.33
610.00	286.33
611.00	271.67
612.00	271.33
613.00	285.67
614.00	314.00
615.00	328.00
616.00	327.33
617.00	310.00
618.00	297.33
619.00	288.33
620.00	295.33
621.00	326.67
622.00	379.33
623.00	425.00
624.00	446.67
625.00	437.33
626.00	423.67
627.00	403.33
628.00	387.33
629.00	369.00
630.00	359.67
631.00	343.67
632.00	338.33
633.00	360.67
634.00	428.67
635.00	513.67
636.00	574.67
637.00	580.67
638.00	520.00
639.00	430.33
640.00	360.33
641.00	351.33
642.00	395.67
643.00	449.33
644.00	468.33
645.00	461.33
646.00	461.67
647.00	492.00
648.00	525.67
649.00	562.00
650.00	595.67
651.00	615.67
652.00	593.00
653.00	545.67
654.00	501.00
655.00	494.33
656.00	547.67
657.00	657.00
658.00	774.33
659.00	823.33
660.00	778.00
661.00	675.33
662.00	586.00
663.00	564.00
664.00	601.33
665.00	612.33
666.00	560.67
667.00	477.33
668.00	424.67
669.00	402.67
670.00	388.33
671.00	386.67
672.00	417.00
673.00	474.00
674.00	530.67
675.00	556.00
676.00	570.33
677.00	647.33
678.00	874.33
679.00	1199.33
680.00	1448.67
681.00	1437.00
682.00	1196.00
683.00	881.33
684.00	647.33
685.00	524.67
686.00	498.67
687.00	521.33
688.00	555.00
689.00	571.33
690.00	594.67
691.00	633.00
692.00	685.67
693.00	716.33
694.00	719.33
695.00	690.67
696.00	658.00
697.00	614.33
698.00	572.33
699.00	538.00
700.00	532.67
701.00	558.00
702.00	623.00
703.00	700.67
704.00	753.33
705.00	729.67
706.00	656.67
707.00	584.67
708.00	546.00
709.00	515.00
710.00	477.00
711.00	442.67
712.00	424.33
713.00	416.67
714.00	442.00
715.00	534.33
716.00	685.00
717.00	811.00
718.00	889.33
719.00	916.00
720.00	892.67
721.00	776.33
722.00	618.00
723.00	499.33
724.00	458.33
725.00	452.33
726.00	443.67
727.00	430.67
728.00	446.00
729.00	504.67
730.00	578.00
731.00	625.00
732.00	624.67
733.00	619.67
734.00	616.67
735.00	608.00
736.00	593.33
737.00	597.67
738.00	600.00
739.00	565.00
740.00	468.00
741.00	368.67
742.00	301.00
743.00	298.00
744.00	369.67
745.00	496.00
746.00	606.33
747.00	648.67
748.00	667.33
749.00	675.00
750.00	663.67
751.00	579.67
752.00	481.67
753.00	408.33
754.00	381.33
755.00	382.00
756.00	395.00
757.00	409.33
758.00	414.33
759.00	419.67
760.00	428.67
761.00	441.67
762.00	437.33
763.00	412.00
764.00	365.00
765.00	334.67
766.00	366.67
767.00	441.67
768.00	494.33
769.00	456.67
770.00	360.33
771.00	275.33
772.00	247.00
773.00	287.00
774.00	381.33
775.00	482.00
776.00	530.00
777.00	521.00
778.00	496.00
779.00	467.67
780.00	420.33
781.00	349.00
782.00	290.00
783.00	250.33
784.00	235.33
785.00	230.00
786.00	239.00
787.00	252.33
788.00	282.00
789.00	308.67
790.00	324.33
791.00	320.67
792.00	306.33
793.00	288.67
794.00	274.67
795.00	288.33
796.00	320.33
797.00	335.67
798.00	308.67
799.00	258.67
800.00	225.33
801.00	216.33
802.00	239.67
803.00	293.67
804.00	365.67
805.00	408.00
806.00	393.67
807.00	351.33
808.00	312.33
809.00	287.67
810.00	262.33
811.00	237.00
812.00	222.33
813.00	225.33
814.00	238.00
815.00	248.67
816.00	247.33
817.00	241.00
818.00	237.33
819.00	240.00
820.00	238.00
821.00	232.00
822.00	222.33
823.00	222.33
824.00	233.33
825.00	246.00
826.00	245.67
827.00	230.33
828.00	211.33
829.00	196.33
830.00	189.67
831.00	189.33
832.00	204.00
833.00	232.00
834.00	255.33
835.00	265.67
836.00	257.67
837.00	244.33
838.00	230.67
839.00	214.00
840.00	201.00
841.00	190.67
842.00	187.00
843.00	187.33
844.00	188.00
845.00	188.33
846.00	188.00
847.00	186.00
848.00	183.67
849.00	178.00
850.00	174.33
851.00	172.00
852.00	171.67
853.00	174.00
854.00	176.67
855.00	177.00
856.00	173.67
857.00	173.00
858.00	178.00
859.00	188.00
860.00	200.67
861.00	217.00
862.00	227.67
863.00	227.67
864.00	219.00
865.00	210.33
866.00	205.67
867.00	207.33
868.00	228.00
869.00	478.33
870.00	1772.00
871.00	3047.67
872.00	4095.00
873.00	4095.00
874.00	4095.00
875.00	3518.00
876.00	2671.33
877.00	1654.67
878.00	1081.00
879.00	694.00
880.00	433.33
881.00	291.33
882.00	224.67
883.00	197.33
884.00	182.00
885.00	171.33
886.00	165.00
887.00	163.67
888.00	170.00
889.00	180.00
890.00	191.00
891.00	194.67
892.00	193.67
893.00	188.67
894.00	183.33
895.00	177.67
896.00	171.33
897.00	166.00
898.00	160.33
899.00	158.00
900.00	155.67
901.00	155.67
902.00	154.00
903.00	154.67
904.00	155.33
905.00	154.67
906.00	153.67
907.00	153.67
908.00	157.00
909.00	165.33
910.00	175.00
911.00	190.00
912.00	194.67
913.00	194.00
914.00	183.33
915.00	175.67
916.00	174.00
917.00	173.33
918.00	173.00
919.00	168.33
920.00	165.33
921.00	163.67
922.00	161.67
923.00	160.33
924.00	159.33
925.00	159.67
926.00	160.33
927.00	163.33
928.00	168.00
929.00	170.67
930.00	169.67
931.00	166.00
932.00	164.67
933.00	163.67
934.00	161.33
935.00	158.00
936.00	155.33
937.00	153.33
938.00	152.00
939.00	153.33
940.00	155.67
941.00	160.00
942.00	166.33
943.00	175.67
944.00	180.00
945.00	179.33
946.00	179.33
947.00	182.33
948.00	183.33
949.00	180.67
950.00	174.00
951.00	171.33
952.00	172.00
953.00	176.33
954.00	177.67
955.00	173.67
956.00	167.33
957.00	161.67
958.00	158.00
959.00	155.00
960.00	154.67
961.00	155.00
962.00	159.33
963.00	161.67
964.00	164.00
965.00	163.00
966.00	161.33
967.00	161.00
968.00	159.33
969.00	160.33
970.00	163.67
971.00	170.00
972.00	173.67
973.00	173.00
974.00	172.67
975.00	172.33
976.00	169.33
977.00	163.33
978.00	155.67
979.00	152.00
980.00	151.00
981.00	156.67
982.00	162.33
983.00	165.00
984.00	164.67
985.00	161.33
986.00	163.00
987.00	164.00
988.00	165.33
989.00	163.00
990.00	159.33
991.00	157.33
992.00	155.33
993.00	155.00
994.00	155.67
995.00	156.00
996.00	154.67
997.00	154.33
998.00	155.33
999.00	158.67
1000.00	158.67
1001.00	158.67
1002.00	157.33
1003.00	157.33
1004.00	157.33
1005.00	158.67
1006.00	159.33
1007.00	160.00
1008.00	161.67
1009.00	165.33
1010.00	169.67
1011.00	173.67
1012.00	174.00
1013.00	174.33
1014.00	173.33
1015.00	174.00
1016.00	170.67
1017.00	165.67
1018.00	160.67
1019.00	158.67
1020.00	156.00
1021.00	153.67
1022.00	151.33
1023.00	150.67
1024.00	150.33
1025.00	150.33
1026.00	154.33
1027.00	159.67
1028.00	167.00
1029.00	170.67
1030.00	172.33
1031.00	173.67
1032.00	176.67
1033.00	177.33
1034.00	176.33
1035.00	170.00
1036.00	165.67
1037.00	161.00
1038.00	159.33
1039.00	159.33
1040.00	159.33
1041.00	160.00
1042.00	158.67
1043.00	156.33
1044.00	156.00
1045.00	158.33
1046.00	162.67
1047.00	165.00
1048.00	168.33
1049.00	173.67
1050.00	182.67
1051.00	191.00
1052.00	201.00
1053.00	211.00
1054.00	216.00
1055.00	213.33
1056.00	205.00
1057.00	200.33
1058.00	200.00
1059.00	202.33
1060.00	198.33
1061.00	193.00
1062.00	186.00
1063.00	184.00
1064.00	180.67
1065.00	181.00
1066.00	187.67
1067.00	203.00
1068.00	212.00
1069.00	214.00
1070.00	215.67
1071.00	226.00
1072.00	237.00
1073.00	244.67
1074.00	251.33
1075.00	261.00
1076.00	266.00
1077.00	266.67
1078.00	272.00
1079.00	279.00
1080.00	280.33
1081.00	266.00
1082.00	242.67
1083.00	227.67
1084.00	224.33
1085.00	237.67
1086.00	252.67
1087.00	260.33
1088.00	259.33
1089.00	251.00
1090.00	255.00
1091.00	261.33
1092.00	271.00
1093.00	269.00
1094.00	256.33
1095.00	240.67
1096.00	234.33
1097.00	233.00
1098.00	227.00
1099.00	209.00
1100.00	189.00
1101.00	178.67
1102.00	187.00
1103.00	218.00
1104.00	253.67
1105.00	271.67
1106.00	265.00
1107.00	245.67
1108.00	228.67
1109.00	219.67
1110.00	215.67
1111.00	214.00
1112.00	203.33
1113.00	192.00
1114.00	180.33
1115.00	176.33
1116.00	180.67
1117.00	192.67
1118.00	203.00
1119.00	200.00
1120.00	190.00
1121.00	181.33
1122.00	176.33
1123.00	171.00
1124.00	170.33
1125.00	171.00
1126.00	170.67
1127.00	169.67
1128.00	172.00
1129.00	180.33
1130.00	184.67
1131.00	189.00
1132.00	201.67
1133.00	224.33
1134.00	247.33
1135.00	251.00
1136.00	241.67
1137.00	232.00
1138.00	229.33
1139.00	229.00
1140.00	226.33
1141.00	224.67
1142.00	220.33
1143.00	213.33
1144.00	204.33
1145.00	200.33
1146.00	196.33
1147.00	191.67
1148.00	187.00
1149.00	187.00
1150.00	195.00
1151.00	203.33
1152.00	207.00
1153.00	203.33
1154.00	206.33
1155.00	221.67
1156.00	238.33
1157.00	249.67
1158.00	244.33
1159.00	250.67
1160.00	257.33
1161.00	271.67
1162.00	263.33
1163.00	244.33
1164.00	217.67
1165.00	200.00
1166.00	194.00
1167.00	197.00
1168.00	201.33
1169.00	200.33
1170.00	198.00
1171.00	199.67
1172.00	205.00
1173.00	210.00
1174.00	207.00
1175.00	201.67
1176.00	201.33
1177.00	218.00
1178.00	241.00
1179.00	261.33
1180.00	266.33
1181.00	256.67
1182.00	237.67
1183.00	212.67
1184.00	196.67
1185.00	186.00
1186.00	183.67
1187.00	178.33
1188.00	172.33
1189.00	166.00
1190.00	163.67
1191.00	163.67
1192.00	173.67
1193.00	191.33
1194.00	210.33
1195.00	220.33
1196.00	222.67
1197.00	225.33
1198.00	225.33
1199.00	217.33
1200.00	204.67
1201.00	192.33
1202.00	186.33
1203.00	187.33
1204.00	191.00
1205.00	198.33
1206.00	209.00
1207.00	214.67
1208.00	215.33
1209.00	204.33
1210.00	195.67
1211.00	188.00
1212.00	183.67
1213.00	178.00
1214.00	177.33
1215.00	179.33
1216.00	183.67
1217.00	182.67
1218.00	180.33
1219.00	178.33
1220.00	178.00
1221.00	175.67
1222.00	169.67
1223.00	162.33
1224.00	157.33
1225.00	156.67
1226.00	158.33
1227.00	158.67
1228.00	158.67
1229.00	156.67
1230.00	156.00
1231.00	155.67
1232.00	157.00
1233.00	158.67
1234.00	159.67
1235.00	162.67
1236.00	170.33
1237.00	178.33
1238.00	180.67
1239.00	177.00
1240.00	176.67
1241.00	183.33
1242.00	191.33
1243.00	195.67
1244.00	193.33
1245.00	183.33
1246.00	171.00
1247.00	160.00
1248.00	157.00
1249.00	155.00
1250.00	154.00
1251.00	152.00
1252.00	150.33
1253.00	147.00
1254.00	143.33
1255.00	142.33
1256.00	143.33
1257.00	144.33
1258.00	144.67
1259.00	144.67
1260.00	144.00
1261.00	143.67
1262.00	144.67
1263.00	146.33
1264.00	146.67
1265.00	145.00
1266.00	144.33
1267.00	143.67
1268.00	145.33
1269.00	148.67
1270.00	158.67
1271.00	169.00
1272.00	175.67
1273.00	171.33
1274.00	163.33
1275.00	154.67
1276.00	152.67
1277.00	153.67
1278.00	157.33
1279.00	160.00
1280.00	162.00
1281.00	164.67
1282.00	166.33
1283.00	165.33
1284.00	162.00
1285.00	159.00
1286.00	159.00
1287.00	158.67
1288.00	159.00
1289.00	160.33
1290.00	163.33
1291.00	165.00
1292.00	163.00
1293.00	158.33
1294.00	154.33
1295.00	153.67
1296.00	158.00
1297.00	164.33
1298.00	169.67
1299.00	171.00
1300.00	167.00
1301.00	160.00
1302.00	153.67
1303.00	150.33
1304.00	150.67
1305.00	154.67
1306.00	158.67
1307.00	163.67
1308.00	163.67
1309.00	162.67
1310.00	158.33
1311.00	156.33
1312.00	153.00
1313.00	151.33
1314.00	148.33
1315.00	149.67
1316.00	150.33
1317.00	153.00
1318.00	154.33
1319.00	156.00
1320.00	154.67
1321.00	150.67
1322.00	144.67
1323.00	141.67
1324.00	141.67
1325.00	143.00
1326.00	143.00
1327.00	143.67
1328.00	146.00
1329.00	150.00
1330.00	153.33
1331.00	155.67
1332.00	158.00
1333.00	158.33
1334.00	157.00
1335.00	151.67
1336.00	147.33
1337.00	146.67
1338.00	148.33
1339.00	150.33
1340.00	150.00
1341.00	151.00
1342.00	150.67
1343.00	149.67
1344.00	147.33
1345.00	145.33
1346.00	143.67
1347.00	142.00
1348.00	140.33
1349.00	139.00
1350.00	138.33
1351.00	142.00
1352.00	147.33
1353.00	151.67
1354.00	150.67
1355.00	146.67
1356.00	143.33
1357.00	141.67
1358.00	141.33
1359.00	142.33
1360.00	143.67
1361.00	144.33
1362.00	144.67
1363.00	145.33
1364.00	144.67
1365.00	143.33
