SpectraSuite Data File
++++++++++++++++++++++++++++++++++++
Date: Fri Feb 17 17:35:28 PST 2017
User: admin
Dark Spectrum Present: No
Reference Spectrum Present: No
Number of Sampled Component Spectra: 1
Spectrometers: USB2G8485
Integration Time (usec): 100000 (USB2G8485)
Spectra Averaged: 1 (USB2G8485)
Boxcar Smoothing: 1 (USB2G8485)
Correct for Electrical Dark: No (USB2G8485)
Strobe/Lamp Enabled: No (USB2G8485)
Correct for Detector Non-linearity: No (USB2G8485)
Correct for Stray Light: No (USB2G8485)
Number of Pixels in Processed Spectrum: 2048
>>>>>Begin Processed Spectral Data<<<<<
0.00	0.00
1.00	79.33
2.00	118.67
3.00	119.00
4.00	120.67
5.00	123.00
6.00	124.67
7.00	125.00
8.00	125.67
9.00	127.67
10.00	130.00
11.00	130.67
12.00	129.67
13.00	129.00
14.00	128.33
15.00	128.00
16.00	127.33
17.00	127.33
18.00	128.00
19.00	128.67
20.00	129.67
21.00	129.67
22.00	129.00
23.00	127.67
24.00	127.00
25.00	127.33
26.00	130.00
27.00	131.67
28.00	131.33
29.00	130.00
30.00	130.00
31.00	130.67
32.00	129.67
33.00	127.33
34.00	127.00
35.00	127.67
36.00	129.00
37.00	129.67
38.00	130.67
39.00	132.33
40.00	133.00
41.00	132.00
42.00	131.00
43.00	129.33
44.00	129.33
45.00	129.00
46.00	129.67
47.00	130.67
48.00	131.00
49.00	131.00
50.00	130.00
51.00	129.00
52.00	130.67
53.00	132.67
54.00	135.00
55.00	136.00
56.00	136.00
57.00	135.00
58.00	132.67
59.00	133.00
60.00	133.67
61.00	134.33
62.00	133.67
63.00	136.00
64.00	139.67
65.00	147.00
66.00	177.67
67.00	288.00
68.00	516.00
69.00	770.00
70.00	858.67
71.00	708.00
72.00	457.00
73.00	279.00
74.00	206.33
75.00	174.00
76.00	150.00
77.00	138.00
78.00	134.00
79.00	133.67
80.00	133.33
81.00	132.33
82.00	131.33
83.00	131.00
84.00	132.33
85.00	134.00
86.00	135.00
87.00	134.00
88.00	132.00
89.00	130.67
90.00	130.67
91.00	132.00
92.00	132.67
93.00	133.67
94.00	133.33
95.00	133.33
96.00	133.00
97.00	133.67
98.00	134.00
99.00	133.33
100.00	132.00
101.00	132.33
102.00	134.33
103.00	135.00
104.00	134.00
105.00	132.67
106.00	132.67
107.00	133.00
108.00	134.33
109.00	135.00
110.00	134.67
111.00	133.33
112.00	133.00
113.00	134.33
114.00	134.33
115.00	133.67
116.00	133.33
117.00	133.67
118.00	134.00
119.00	134.00
120.00	134.33
121.00	134.33
122.00	134.33
123.00	135.00
124.00	136.67
125.00	136.33
126.00	136.33
127.00	135.67
128.00	135.00
129.00	134.33
130.00	134.00
131.00	135.33
132.00	134.33
133.00	134.67
134.00	135.00
135.00	138.00
136.00	139.67
137.00	142.00
138.00	142.00
139.00	141.00
140.00	139.33
141.00	137.67
142.00	136.33
143.00	136.00
144.00	137.33
145.00	138.67
146.00	139.00
147.00	139.00
148.00	140.00
149.00	140.33
150.00	140.67
151.00	141.00
152.00	141.33
153.00	141.33
154.00	141.00
155.00	140.67
156.00	140.33
157.00	141.00
158.00	142.00
159.00	144.00
160.00	147.00
161.00	149.33
162.00	149.67
163.00	147.33
164.00	146.00
165.00	147.33
166.00	150.33
167.00	154.67
168.00	159.33
169.00	166.67
170.00	180.33
171.00	257.00
172.00	640.33
173.00	1391.67
174.00	2243.00
175.00	2471.33
176.00	1933.00
177.00	1024.00
178.00	411.33
179.00	187.33
180.00	187.33
181.00	234.33
182.00	304.67
183.00	340.00
184.00	314.00
185.00	246.33
186.00	186.67
187.00	157.00
188.00	146.67
189.00	145.00
190.00	143.33
191.00	143.00
192.00	142.00
193.00	143.33
194.00	143.67
195.00	144.00
196.00	142.67
197.00	141.67
198.00	141.33
199.00	141.67
200.00	143.33
201.00	144.67
202.00	148.00
203.00	156.67
204.00	170.67
205.00	178.33
206.00	175.33
207.00	164.00
208.00	154.00
209.00	148.33
210.00	147.00
211.00	151.33
212.00	158.00
213.00	166.67
214.00	179.33
215.00	193.00
216.00	197.33
217.00	186.33
218.00	168.67
219.00	155.33
220.00	150.67
221.00	148.33
222.00	147.00
223.00	145.33
224.00	145.33
225.00	147.00
226.00	147.33
227.00	147.00
228.00	146.00
229.00	149.00
230.00	154.00
231.00	162.33
232.00	168.67
233.00	172.00
234.00	171.33
235.00	169.00
236.00	165.33
237.00	159.33
238.00	153.67
239.00	154.33
240.00	158.67
241.00	166.33
242.00	177.33
243.00	188.67
244.00	195.00
245.00	193.33
246.00	189.33
247.00	185.33
248.00	184.00
249.00	188.67
250.00	204.67
251.00	235.67
252.00	285.67
253.00	356.33
254.00	486.00
255.00	1433.33
256.00	2651.67
257.00	3794.00
258.00	4095.00
259.00	4095.00
260.00	3769.33
261.00	2600.67
262.00	1318.00
263.00	352.00
264.00	225.00
265.00	204.67
266.00	192.67
267.00	180.00
268.00	172.67
269.00	165.00
270.00	162.00
271.00	161.67
272.00	159.00
273.00	156.33
274.00	153.33
275.00	151.00
276.00	149.67
277.00	146.67
278.00	147.00
279.00	146.33
280.00	146.00
281.00	145.67
282.00	146.00
283.00	146.00
284.00	144.67
285.00	144.00
286.00	144.00
287.00	144.67
288.00	143.67
289.00	144.00
290.00	143.33
291.00	143.67
292.00	142.67
293.00	143.00
294.00	143.00
295.00	142.67
296.00	143.33
297.00	144.00
298.00	146.67
299.00	149.00
300.00	149.67
301.00	149.33
302.00	146.67
303.00	145.33
304.00	143.33
305.00	142.67
306.00	143.00
307.00	144.00
308.00	144.67
309.00	144.33
310.00	142.67
311.00	142.67
312.00	142.67
313.00	143.00
314.00	143.00
315.00	143.33
316.00	143.00
317.00	143.67
318.00	142.33
319.00	142.67
320.00	142.00
321.00	143.00
322.00	144.33
323.00	144.33
324.00	145.00
325.00	144.67
326.00	143.67
327.00	141.00
328.00	140.67
329.00	142.33
330.00	145.33
331.00	145.33
332.00	145.00
333.00	143.67
334.00	142.67
335.00	140.67
336.00	139.67
337.00	140.00
338.00	141.00
339.00	141.67
340.00	142.00
341.00	141.67
342.00	141.67
343.00	141.00
344.00	140.00
345.00	140.00
346.00	141.00
347.00	143.33
348.00	144.00
349.00	145.33
350.00	145.00
351.00	145.00
352.00	144.00
353.00	144.67
354.00	145.00
355.00	145.67
356.00	144.67
357.00	144.00
358.00	144.00
359.00	145.33
360.00	144.33
361.00	142.00
362.00	139.67
363.00	141.33
364.00	141.67
365.00	140.67
366.00	139.00
367.00	139.00
368.00	140.33
369.00	141.00
370.00	141.00
371.00	141.67
372.00	142.67
373.00	144.67
374.00	145.67
375.00	145.33
376.00	145.00
377.00	144.33
378.00	143.00
379.00	141.00
380.00	140.33
381.00	140.67
382.00	143.33
383.00	145.33
384.00	146.33
385.00	144.67
386.00	143.00
387.00	142.67
388.00	142.33
389.00	141.00
390.00	142.00
391.00	143.67
392.00	145.33
393.00	145.00
394.00	145.67
395.00	145.67
396.00	144.33
397.00	142.67
398.00	142.67
399.00	144.00
400.00	144.00
401.00	144.33
402.00	143.33
403.00	144.67
404.00	144.67
405.00	145.33
406.00	146.33
407.00	159.67
408.00	187.00
409.00	218.67
410.00	228.00
411.00	212.67
412.00	185.33
413.00	165.33
414.00	154.33
415.00	148.67
416.00	145.67
417.00	144.00
418.00	143.67
419.00	144.33
420.00	145.00
421.00	143.33
422.00	141.33
423.00	141.33
424.00	142.67
425.00	144.67
426.00	145.33
427.00	145.67
428.00	146.00
429.00	145.33
430.00	144.67
431.00	143.33
432.00	143.00
433.00	142.67
434.00	142.33
435.00	141.00
436.00	139.67
437.00	140.00
438.00	141.33
439.00	142.33
440.00	142.67
441.00	142.67
442.00	145.33
443.00	146.33
444.00	146.67
445.00	145.00
446.00	144.67
447.00	144.67
448.00	143.33
449.00	141.33
450.00	141.33
451.00	143.33
452.00	143.00
453.00	143.00
454.00	145.00
455.00	148.33
456.00	149.33
457.00	147.00
458.00	145.33
459.00	143.67
460.00	142.67
461.00	142.00
462.00	141.33
463.00	144.00
464.00	145.33
465.00	146.00
466.00	144.67
467.00	144.33
468.00	145.00
469.00	143.33
470.00	143.00
471.00	143.00
472.00	144.00
473.00	144.67
474.00	145.33
475.00	146.00
476.00	146.67
477.00	147.67
478.00	147.67
479.00	145.67
480.00	143.67
481.00	143.33
482.00	145.00
483.00	146.67
484.00	149.00
485.00	149.67
486.00	148.33
487.00	146.00
488.00	146.00
489.00	145.67
490.00	145.00
491.00	144.00
492.00	144.33
493.00	145.33
494.00	146.00
495.00	146.33
496.00	146.33
497.00	146.00
498.00	147.00
499.00	147.67
500.00	147.33
501.00	147.33
502.00	148.00
503.00	147.33
504.00	146.00
505.00	144.67
506.00	146.00
507.00	148.00
508.00	149.67
509.00	149.33
510.00	149.00
511.00	149.00
512.00	151.00
513.00	153.33
514.00	154.33
515.00	155.33
516.00	154.67
517.00	152.33
518.00	151.67
519.00	153.00
520.00	155.00
521.00	153.00
522.00	150.00
523.00	150.67
524.00	153.33
525.00	156.00
526.00	156.67
527.00	158.33
528.00	160.00
529.00	160.67
530.00	158.67
531.00	157.33
532.00	155.00
533.00	154.00
534.00	153.33
535.00	154.67
536.00	155.00
537.00	154.33
538.00	153.67
539.00	152.67
540.00	152.00
541.00	152.00
542.00	153.67
543.00	156.33
544.00	160.00
545.00	168.67
546.00	183.00
547.00	201.33
548.00	211.33
549.00	209.00
550.00	199.00
551.00	192.00
552.00	192.67
553.00	200.67
554.00	215.67
555.00	252.67
556.00	569.33
557.00	1856.00
558.00	3118.00
559.00	4095.00
560.00	4095.00
561.00	4095.00
562.00	4095.00
563.00	3755.00
564.00	2727.67
565.00	1504.00
566.00	562.67
567.00	298.33
568.00	222.00
569.00	201.33
570.00	187.33
571.00	179.67
572.00	172.33
573.00	166.33
574.00	163.00
575.00	158.67
576.00	156.33
577.00	155.33
578.00	154.33
579.00	153.00
580.00	150.00
581.00	150.67
582.00	151.00
583.00	150.33
584.00	148.33
585.00	148.33
586.00	150.33
587.00	153.33
588.00	154.00
589.00	152.67
590.00	151.33
591.00	149.67
592.00	149.00
593.00	146.67
594.00	146.67
595.00	147.00
596.00	147.00
597.00	146.00
598.00	143.67
599.00	144.00
600.00	146.00
601.00	149.33
602.00	149.67
603.00	148.33
604.00	146.67
605.00	146.33
606.00	146.67
607.00	147.00
608.00	147.33
609.00	147.67
610.00	148.33
611.00	147.67
612.00	147.00
613.00	146.33
614.00	148.67
615.00	149.00
616.00	148.67
617.00	145.67
618.00	144.67
619.00	144.33
620.00	147.00
621.00	148.00
622.00	148.67
623.00	148.33
624.00	146.67
625.00	145.00
626.00	143.00
627.00	143.00
628.00	142.67
629.00	142.33
630.00	142.33
631.00	144.33
632.00	145.67
633.00	148.00
634.00	148.33
635.00	149.00
636.00	148.00
637.00	145.67
638.00	146.00
639.00	148.67
640.00	152.67
641.00	155.33
642.00	164.33
643.00	284.00
644.00	702.00
645.00	1405.00
646.00	2020.00
647.00	2089.00
648.00	1617.00
649.00	1136.67
650.00	1149.67
651.00	1623.33
652.00	2067.67
653.00	2000.67
654.00	1490.67
655.00	903.00
656.00	525.67
657.00	341.67
658.00	236.33
659.00	179.33
660.00	157.67
661.00	149.00
662.00	145.33
663.00	144.00
664.00	143.00
665.00	143.00
666.00	143.33
667.00	143.00
668.00	142.00
669.00	141.00
670.00	140.67
671.00	141.33
672.00	141.33
673.00	141.67
674.00	141.33
675.00	140.33
676.00	139.00
677.00	138.33
678.00	139.33
679.00	141.33
680.00	141.67
681.00	140.00
682.00	139.33
683.00	138.00
684.00	138.33
685.00	138.33
686.00	141.33
687.00	142.00
688.00	141.33
689.00	139.67
690.00	139.00
691.00	139.67
692.00	139.00
693.00	139.33
694.00	139.00
695.00	139.33
696.00	139.67
697.00	140.33
698.00	140.00
699.00	138.00
700.00	136.67
701.00	136.33
702.00	138.33
703.00	138.33
704.00	138.00
705.00	137.00
706.00	136.33
707.00	137.00
708.00	137.00
709.00	136.67
710.00	135.33
711.00	135.00
712.00	136.00
713.00	138.00
714.00	138.67
715.00	138.00
716.00	137.67
717.00	139.00
718.00	142.00
719.00	147.33
720.00	152.00
721.00	155.33
722.00	154.67
723.00	152.00
724.00	147.67
725.00	144.33
726.00	142.33
727.00	141.67
728.00	141.00
729.00	140.00
730.00	138.67
731.00	138.67
732.00	138.33
733.00	139.67
734.00	138.67
735.00	139.00
736.00	137.67
737.00	137.33
738.00	136.67
739.00	136.67
740.00	138.00
741.00	139.00
742.00	140.33
743.00	139.67
744.00	138.67
745.00	138.00
746.00	136.67
747.00	137.33
748.00	137.67
749.00	139.67
750.00	139.33
751.00	141.33
752.00	141.33
753.00	141.00
754.00	138.33
755.00	136.67
756.00	136.67
757.00	137.00
758.00	136.67
759.00	137.67
760.00	138.00
761.00	139.33
762.00	138.33
763.00	136.67
764.00	136.00
765.00	136.00
766.00	136.67
767.00	135.33
768.00	134.33
769.00	134.33
770.00	135.67
771.00	138.00
772.00	139.00
773.00	139.67
774.00	138.67
775.00	137.67
776.00	137.00
777.00	137.67
778.00	138.67
779.00	139.00
780.00	137.67
781.00	136.33
782.00	135.67
783.00	134.67
784.00	134.67
785.00	135.33
786.00	137.67
787.00	138.33
788.00	137.33
789.00	136.00
790.00	135.00
791.00	134.67
792.00	134.67
793.00	135.33
794.00	136.33
795.00	136.00
796.00	136.00
797.00	135.33
798.00	135.33
799.00	135.33
800.00	136.00
801.00	136.33
802.00	136.67
803.00	137.00
804.00	137.00
805.00	136.33
806.00	134.33
807.00	133.00
808.00	132.33
809.00	132.33
810.00	133.33
811.00	133.00
812.00	133.67
813.00	134.00
814.00	135.33
815.00	135.33
816.00	134.67
817.00	136.67
818.00	138.33
819.00	139.67
820.00	138.67
821.00	138.33
822.00	137.67
823.00	137.33
824.00	137.67
825.00	137.67
826.00	137.00
827.00	136.33
828.00	138.00
829.00	140.33
830.00	142.67
831.00	143.67
832.00	143.67
833.00	141.33
834.00	137.67
835.00	134.33
836.00	133.33
837.00	134.33
838.00	134.67
839.00	134.33
840.00	134.67
841.00	135.67
842.00	138.00
843.00	138.00
844.00	137.67
845.00	136.67
846.00	135.67
847.00	135.00
848.00	134.00
849.00	134.00
850.00	135.33
851.00	136.67
852.00	137.00
853.00	136.00
854.00	134.67
855.00	134.33
856.00	134.33
857.00	134.67
858.00	135.00
859.00	135.33
860.00	135.67
861.00	136.33
862.00	137.00
863.00	138.33
864.00	138.00
865.00	136.67
866.00	134.00
867.00	133.33
868.00	135.00
869.00	137.67
870.00	138.67
871.00	136.67
872.00	135.00
873.00	134.67
874.00	136.33
875.00	137.33
876.00	137.00
877.00	136.67
878.00	135.33
879.00	135.33
880.00	134.00
881.00	133.33
882.00	133.33
883.00	134.33
884.00	135.33
885.00	134.67
886.00	134.00
887.00	133.33
888.00	134.33
889.00	135.33
890.00	137.00
891.00	136.67
892.00	137.00
893.00	137.67
894.00	138.00
895.00	137.00
896.00	135.00
897.00	134.33
898.00	134.33
899.00	134.33
900.00	136.00
901.00	137.00
902.00	137.33
903.00	137.00
904.00	139.67
905.00	146.67
906.00	152.00
907.00	152.00
908.00	148.00
909.00	143.67
910.00	141.00
911.00	140.67
912.00	140.67
913.00	140.00
914.00	138.33
915.00	136.33
916.00	136.33
917.00	135.67
918.00	137.00
919.00	137.33
920.00	136.67
921.00	135.33
922.00	135.00
923.00	135.33
924.00	136.33
925.00	138.33
926.00	143.67
927.00	151.33
928.00	156.33
929.00	157.33
930.00	152.00
931.00	147.33
932.00	143.00
933.00	142.00
934.00	140.67
935.00	139.67
936.00	137.67
937.00	137.00
938.00	135.00
939.00	133.67
940.00	131.67
941.00	132.67
942.00	135.00
943.00	136.33
944.00	135.67
945.00	132.67
946.00	130.33
947.00	129.33
948.00	130.33
949.00	132.33
950.00	134.00
951.00	135.00
952.00	135.00
953.00	134.00
954.00	133.33
955.00	133.00
956.00	134.00
957.00	135.00
958.00	136.00
959.00	136.33
960.00	138.00
961.00	143.67
962.00	151.33
963.00	154.33
964.00	153.00
965.00	148.67
966.00	146.00
967.00	145.00
968.00	144.00
969.00	143.33
970.00	142.33
971.00	146.00
972.00	155.00
973.00	163.00
974.00	165.00
975.00	161.00
976.00	153.33
977.00	148.00
978.00	144.67
979.00	145.33
980.00	146.00
981.00	148.00
982.00	149.33
983.00	149.67
984.00	147.67
985.00	146.33
986.00	154.33
987.00	270.33
988.00	632.33
989.00	1169.67
990.00	1604.67
991.00	1579.33
992.00	1210.00
993.00	772.00
994.00	520.00
995.00	400.33
996.00	319.33
997.00	248.67
998.00	199.67
999.00	172.67
1000.00	159.00
1001.00	149.33
1002.00	141.00
1003.00	137.67
1004.00	138.33
1005.00	141.00
1006.00	142.00
1007.00	142.67
1008.00	146.33
1009.00	152.67
1010.00	155.33
1011.00	154.00
1012.00	150.33
1013.00	148.33
1014.00	145.67
1015.00	143.00
1016.00	145.67
1017.00	221.33
1018.00	465.00
1019.00	822.33
1020.00	1122.67
1021.00	1114.00
1022.00	878.00
1023.00	583.67
1024.00	408.00
1025.00	324.33
1026.00	267.00
1027.00	223.00
1028.00	187.00
1029.00	166.67
1030.00	152.00
1031.00	145.67
1032.00	141.00
1033.00	140.33
1034.00	139.33
1035.00	138.33
1036.00	137.00
1037.00	137.00
1038.00	137.67
1039.00	138.33
1040.00	140.00
1041.00	153.00
1042.00	191.67
1043.00	239.33
1044.00	265.67
1045.00	248.33
1046.00	213.67
1047.00	184.33
1048.00	170.33
1049.00	160.00
1050.00	151.00
1051.00	143.33
1052.00	139.67
1053.00	138.33
1054.00	138.33
1055.00	138.00
1056.00	136.67
1057.00	135.00
1058.00	133.33
1059.00	133.67
1060.00	136.33
1061.00	139.33
1062.00	140.00
1063.00	139.67
1064.00	137.67
1065.00	136.00
1066.00	133.00
1067.00	132.00
1068.00	133.33
1069.00	135.33
1070.00	137.00
1071.00	137.33
1072.00	138.00
1073.00	138.00
1074.00	137.00
1075.00	136.00
1076.00	135.00
1077.00	136.00
1078.00	153.67
1079.00	224.00
1080.00	334.00
1081.00	432.67
1082.00	438.67
1083.00	367.33
1084.00	277.00
1085.00	220.33
1086.00	196.33
1087.00	183.00
1088.00	173.00
1089.00	163.67
1090.00	155.67
1091.00	148.33
1092.00	146.00
1093.00	142.67
1094.00	141.00
1095.00	138.00
1096.00	137.67
1097.00	138.00
1098.00	137.33
1099.00	136.33
1100.00	136.33
1101.00	137.33
1102.00	139.00
1103.00	140.67
1104.00	143.67
1105.00	146.67
1106.00	149.33
1107.00	148.33
1108.00	148.00
1109.00	149.00
1110.00	158.00
1111.00	228.33
1112.00	510.67
1113.00	1000.33
1114.00	1510.67
1115.00	1643.33
1116.00	1363.33
1117.00	921.67
1118.00	605.67
1119.00	461.67
1120.00	371.67
1121.00	301.67
1122.00	243.67
1123.00	200.67
1124.00	172.33
1125.00	156.67
1126.00	148.67
1127.00	143.67
1128.00	142.67
1129.00	144.33
1130.00	145.67
1131.00	144.67
1132.00	143.33
1133.00	142.00
1134.00	141.33
1135.00	141.33
1136.00	140.33
1137.00	139.33
1138.00	137.67
1139.00	138.33
1140.00	140.67
1141.00	144.00
1142.00	147.67
1143.00	150.67
1144.00	152.00
1145.00	153.67
1146.00	156.33
1147.00	208.00
1148.00	458.00
1149.00	905.67
1150.00	1429.00
1151.00	1791.67
1152.00	1994.33
1153.00	2118.33
1154.00	2095.33
1155.00	1787.00
1156.00	1305.33
1157.00	864.00
1158.00	618.67
1159.00	468.00
1160.00	359.33
1161.00	279.67
1162.00	223.00
1163.00	184.33
1164.00	164.00
1165.00	151.33
1166.00	147.33
1167.00	145.33
1168.00	146.00
1169.00	145.00
1170.00	144.67
1171.00	143.33
1172.00	142.00
1173.00	141.00
1174.00	141.67
1175.00	142.67
1176.00	142.00
1177.00	140.00
1178.00	138.67
1179.00	140.00
1180.00	146.00
1181.00	154.00
1182.00	159.67
1183.00	162.00
1184.00	161.33
1185.00	164.67
1186.00	195.67
1187.00	560.67
1188.00	1721.67
1189.00	3001.33
1190.00	3947.67
1191.00	4095.00
1192.00	3572.00
1193.00	2722.33
1194.00	1757.67
1195.00	1218.00
1196.00	933.67
1197.00	695.67
1198.00	503.00
1199.00	347.33
1200.00	246.67
1201.00	191.33
1202.00	166.67
1203.00	156.00
1204.00	150.33
1205.00	147.00
1206.00	144.33
1207.00	144.00
1208.00	144.33
1209.00	144.33
1210.00	143.67
1211.00	143.00
1212.00	141.67
1213.00	150.00
1214.00	274.33
1215.00	690.00
1216.00	1312.67
1217.00	1850.33
1218.00	1872.00
1219.00	1484.33
1220.00	993.33
1221.00	678.33
1222.00	524.33
1223.00	415.67
1224.00	334.67
1225.00	265.67
1226.00	214.67
1227.00	178.67
1228.00	159.33
1229.00	148.33
1230.00	142.67
1231.00	138.67
1232.00	136.00
1233.00	135.33
1234.00	136.00
1235.00	135.00
1236.00	133.33
1237.00	131.67
1238.00	131.33
1239.00	131.67
1240.00	131.67
1241.00	131.33
1242.00	130.67
1243.00	131.33
1244.00	132.67
1245.00	133.67
1246.00	134.33
1247.00	134.33
1248.00	134.00
1249.00	134.00
1250.00	134.67
1251.00	134.67
1252.00	133.33
1253.00	131.67
1254.00	131.00
1255.00	133.33
1256.00	136.00
1257.00	136.67
1258.00	135.67
1259.00	134.33
1260.00	134.67
1261.00	135.67
1262.00	136.00
1263.00	137.00
1264.00	137.33
1265.00	139.33
1266.00	139.33
1267.00	138.00
1268.00	137.00
1269.00	137.67
1270.00	139.67
1271.00	140.00
1272.00	139.33
1273.00	138.33
1274.00	137.00
1275.00	136.67
1276.00	137.33
1277.00	139.33
1278.00	141.33
1279.00	141.67
1280.00	142.33
1281.00	141.67
1282.00	156.67
1283.00	304.00
1284.00	662.33
1285.00	1127.67
1286.00	1420.00
1287.00	1325.33
1288.00	999.00
1289.00	670.33
1290.00	491.67
1291.00	399.00
1292.00	329.00
1293.00	272.33
1294.00	227.33
1295.00	196.33
1296.00	173.67
1297.00	161.33
1298.00	154.33
1299.00	152.33
1300.00	166.00
1301.00	276.33
1302.00	528.00
1303.00	896.00
1304.00	1361.67
1305.00	1786.33
1306.00	2088.33
1307.00	2027.00
1308.00	1645.00
1309.00	1161.00
1310.00	791.00
1311.00	606.67
1312.00	481.00
1313.00	384.67
1314.00	305.33
1315.00	248.33
1316.00	209.00
1317.00	183.33
1318.00	169.00
1319.00	160.00
1320.00	154.67
1321.00	151.67
1322.00	150.33
1323.00	148.67
1324.00	147.67
1325.00	146.67
1326.00	147.33
1327.00	147.67
1328.00	149.33
1329.00	154.67
1330.00	176.67
1331.00	337.33
1332.00	764.67
1333.00	1354.00
1334.00	1911.00
1335.00	2586.33
1336.00	3290.00
1337.00	3887.33
1338.00	4095.00
1339.00	3980.00
1340.00	3238.00
1341.00	2331.33
1342.00	1430.67
1343.00	1071.67
1344.00	810.33
1345.00	605.00
1346.00	445.33
1347.00	322.00
1348.00	239.00
1349.00	190.00
1350.00	167.67
1351.00	156.33
1352.00	150.33
1353.00	147.00
1354.00	144.67
1355.00	141.67
1356.00	139.67
1357.00	138.67
1358.00	137.67
1359.00	136.00
1360.00	135.33
1361.00	135.33
